	Longueur d'onde (nm)	Intensité	Numéro	Intensité normalisée	Qualité
0	258.53	220	72	1.375	
1	262.369	370	52	2.3125	
2	264.215	110	89	0.6875	
3	266.794	110	90	0.6875	
4	273.579	55	122	0.34375	
5	286.27	140	79	0.875	B+
6	288.553	120	85	0.75	
7	296.46	220	73	1.375	D
8	314.7694	300	67	1.875	D
9	326.3186	3000	9	18.75	D
10	351.1015	1000	18	6.25	B+
11	357.1438	1000	19	6.25	B+
12	366.684	400	49	2.5	
13	367.851	640	32	4.0	
14	368.485	820	26	5.125	
15	368.578	1300	16	8.125	
16	372.8	300	68	1.875	
17	373.934	930	23	5.8125	
18	375.705	1200	17	7.5	D
19	376.763	640	33	4.0	
20	377.111	330	61	2.0625	
21	377.305	640	34	4.0	
22	377.471	370	53	2.3125	
23	378.147	420	42	2.625	
24	381.227	470	39	2.9375	
25	384.089	370	54	2.3125	
26	384.436	330	62	2.0625	
27	384.702	420	43	2.625	
28	385.84	420	44	2.625	
29	386.881	1600	15	10.0	D
30	391.729	540	35	3.375	
31	392.786	420	45	2.625	
32	393.014	540	36	3.375	
33	393.67	420	46	2.625	
34	396.259	370	55	2.3125	
35	396.751	320	63	2.0	B+
36	400.584	420	47	2.625	
37	400.607	320	64	2.0	
38	401.382	540	37	3.375	B+
39	402.371	370	56	2.3125	B+
40	404.597	12000	2	75.0	B+
41	408.534	370	57	2.3125	B+
42	409.61	390	50	2.4375	
43	410.387	860	25	5.375	B+
44	412.912	350	59	2.1875	B+
45	413.035	350	60	2.1875	B+
46	413.385	390	51	2.4375	
47	414.606	990	21	6.1875	B+
48	416.797	5700	5	35.625	B+
49	417.193	370	58	2.3125	
50	418.372	930	24	5.8125	B+
51	418.682	12000	3	75.0	B+
52	419.094	320	65	2.0	B+
53	419.164	2200	12	13.75	B+
54	419.484	6800	4	42.5	B+
55	419.802	800	27	5.0	B+
56	420.13	680	28	4.25	B+
57	420.224	680	29	4.25	B+
58	420.506	230	71	1.4375	
59	421.124	440	40	2.75	
60	421.172	16000	1	100.0	B+
61	421.318	1800	14	11.25	B+
62	421.516	3700	8	23.125	B+
63	421.809	4400	6	27.5	B+
64	422.111	4400	7	27.5	B+
65	422.221	540	38	3.375	B+
66	422.516	2700	11	16.875	B+
67	423.202	680	30	4.25	B+
68	423.985	680	31	4.25	B+
69	424.591	440	41	2.75	B+
70	426.8264	1000	20	6.25	B+
71	427.669	250	70	1.5625	B+
72	429.1966	3000	10	18.75	B+
73	432.586	320	66	2.0	
74	444.458	150	78	0.9375	
75	452.758	100	91	0.625	
76	456.509	140	80	0.875	B+
77	457.778	420	48	2.625	B+
78	458.936	2100	13	13.125	B+
79	461.226	990	22	6.1875	B+
80	461.383	50	128	0.3125	
81	461.482	50	129	0.3125	
82	466.272	50	130	0.3125	
83	472.122	85	98	0.53125	
84	477.194	60	121	0.375	
85	477.48	50	131	0.3125	
86	477.579	120	86	0.75	
87	479.129	95	94	0.59375	B+
88	480.064	29	168	0.18125	
89	480.794	50	132	0.3125	B+
90	481.028	40	146	0.25	
91	481.28	50	133	0.3125	B
92	481.904	75	107	0.46875	
93	482.496	85	99	0.53125	
94	482.888	75	108	0.46875	
95	483.238	70	111	0.4375	
96	484.175	75	109	0.46875	
97	487.593	40	147	0.25	
98	488.016	85	100	0.53125	B+
99	488.455	40	148	0.25	
100	488.808	95	95	0.59375	B+
101	489.368	50	134	0.3125	
102	489.924	24	178	0.15	
103	491.641	55	123	0.34375	
104	495.959	24	179	0.15	
105	497.357	28	171	0.175	
106	498.552	40	149	0.25	
107	500.387	50	135	0.3125	
108	501.06	24	180	0.15	
109	502.212	70	112	0.4375	B+
110	502.403	30	158	0.1875	
111	502.454	24	181	0.15	B+
112	502.787	40	150	0.25	
113	503.3	50	136	0.3125	
114	504.263	160	75	1.0	B+
115	504.725	24	182	0.15	B+
116	505.021	50	137	0.3125	
117	505.335	30	159	0.1875	
118	505.546	24	183	0.15	
119	507.068	95	96	0.59375	B+
120	507.767	120	87	0.75	B
121	511.032	80	101	0.5	
122	512.004	130	83	0.8125	
123	513.502	30	160	0.1875	
124	516.534	50	138	0.3125	
125	518.53	80	102	0.5	B
126	525.988	70	113	0.4375	
127	526.056	130	84	0.8125	
128	526.711	65	117	0.40625	B+
129	528.207	55	124	0.34375	
130	530.158	160	76	1.0	B+
131	532.469	50	139	0.3125	
132	534.03	65	118	0.40625	
133	535.211	30	161	0.1875	
134	539.557	40	151	0.25	
135	540.419	50	140	0.3125	
136	541.913	80	103	0.5	
137	542.332	70	114	0.4375	
138	542.427	30	162	0.1875	
139	545.111	95	97	0.59375	
140	549.683	28	172	0.175	
141	550.279	24	184	0.15	
142	550.652	28	173	0.175	
143	552.801	30	163	0.1875	C+
144	554.727	65	119	0.40625	B
145	560.553	24	185	0.15	
146	561.323	30	164	0.1875	
147	562.749	20	201	0.125	B+
148	563.95	100	92	0.625	B
149	564.599	55	125	0.34375	
150	565.201	80	104	0.5	B+
151	568.558	24	186	0.15	
152	570.291	24	187	0.15	
153	571.846	70	115	0.4375	
154	574.02	50	141	0.3125	
155	574.553	55	126	0.34375	B+
156	575.048	24	188	0.15	
157	575.879	24	189	0.15	
158	594.58	70	116	0.4375	B+
159	596.446	50	142	0.3125	
160	597.449	120	88	0.75	B
161	598.486	24	190	0.15	
162	598.856	140	81	0.875	B+
163	600.894	30	165	0.1875	
164	601.082	65	120	0.40625	B
165	601.726	24	191	0.15	
166	603.098	24	192	0.15	
167	605.818	24	193	0.15	
168	608.506	30	166	0.1875	
169	608.826	140	82	0.875	B+
170	612.715	24	194	0.15	B+
171	613.364	24	195	0.15	
172	615.828	24	196	0.15	
173	616.843	100	93	0.625	B+
174	625.909	270	69	1.6875	B+
175	626.036	30	167	0.1875	
176	634.332	14	211	0.0875	
177	638.68	40	152	0.25	
178	642.192	50	143	0.3125	
179	643.655	13	212	0.08125	
180	646.083	8	229	0.05	
181	647.491	11	221	0.06875	
182	648.659	28	174	0.175	
183	655.802	20	202	0.125	
184	657.937	160	77	1.0	B
185	664.337	15	209	0.09375	
186	665.836	22	198	0.1375	
187	666.164	29	169	0.18125	
188	666.786	75	110	0.46875	
189	674.793	29	170	0.18125	
190	675.762	10	228	0.0625	
191	676.589	45	144	0.28125	
192	681.82	12	219	0.075	
193	683.542	180	74	1.125	
194	685.296	80	105	0.5	
195	685.646	22	199	0.1375	
196	688.883	22	200	0.1375	
197	692.955	15	210	0.09375	
198	695.142	11	222	0.06875	
199	695.808	40	153	0.25	
200	698.244	13	213	0.08125	
201	699.13	13	214	0.08125	
202	699.81	45	145	0.28125	
203	701.742	20	203	0.125	
204	721.327	11	223	0.06875	
205	723.004	17	206	0.10625	
206	725.001	13	215	0.08125	
207	737.604	20	204	0.125	B+
208	740.759	11	224	0.06875	
209	741.237	24	197	0.15	
210	754.373	55	127	0.34375	
211	755.3	17	207	0.10625	
212	755.978	27	175	0.16875	
213	759.13	27	176	0.16875	
214	761.155	13	216	0.08125	
215	761.77	11	225	0.06875	
216	764.109	35	154	0.21875	
217	764.586	17	208	0.10625	
218	764.664	13	217	0.08125	
219	766.236	80	106	0.5	
220	771.533	35	155	0.21875	
221	781.206	35	156	0.21875	
222	790.938	27	177	0.16875	
223	796.863	11	226	0.06875	
224	814.729	13	218	0.08125	
225	826.553	20	205	0.125	
226	832.61	35	157	0.21875	
227	863.012	11	227	0.06875	
228	878.083	12	220	0.075	
